Instrument parameter file: dummy.iparm
1 3.18 90.0000 
L1 60.0
#S 1 characterization runs
#L frequency(Hz) center_wavelength(angstrom) bank_num vanadium_run empty_run vanadium_back d_min(angstrom) d_max(angstrom)
60 0.900  1 15030 15039 0 0.20  4.12  4700.00  21200.00
60 1.066  2 15050 15084 0 0.30  4.60  8333.33  25000.00
60 1.333  3 15031 15040 0 0.43  5.40 12500.00  29166.67	
60 2.665  4 15032 15041 0 1.15  9.20 33333.33  50000.00
60 4.797  5 15138 15085 0 2.00 15.35 66666.67  83333.67
10 3.198  1 15033 15042 0 0.05 15.40 00000.00 100000.00

